File: trimer_offset/TGA.1Mb.txt
15057
18667
18359
18901
19119
19899
20015
20199
20203
19591
20692
19590
20455
20439
19790
19303
19963
20616
19501
20475
19163
19418
20155
19976
18671
19479
18833
19066
19448
18706
20189
19297
19284
18304
19066
19945
20359
20054
20088
20516
19553
19170
20076
18683
19907
18975
20667
19801
20626
20229
19285
19342
20571
18966
20459
19792
19738
20009
17771
19252
20548
19938
19592
20199
20063
20058
18484
20584
20288
19711
19751
20282
19935
20193
19904
19387
20161
20422
20129
20025
19341
19713
20409
20418
18880
20150
20292
19261
20159
19888
19196
19166
20335
20054
19638
20599
20346
19553
19961
19204
20203
18575
20064
19558
20049
18883
17679
19770
20185
19655
19924
21208
20230
19355
20020
19592
19811
20280
19600
15630
19342
20038
19791
19851
20739
19548
20268
19878
19976
19589
20080
20548
19545
20296
18136
19639
19468
19363
20157
19152
20503
20697
20866
18997
20654
20248
19747
20305
18348
19922
20590
19490
18740
19221
20257
19133
20368
19812
18769
16294
19312
19724
19363
18539
20059
20680
19008
21032
19157
17848
19617
18653
18665
19287
20285
20601
20586
18235
18402
18221
19266
19872
20472
19105
19998
20031
19708
19758
20531
20461
18624
20077
20137
20087
19740
20643
20007
18815
20881
19510
19958
20117
19555
20698
20058
19471
20207
19700
20123
18385
19044
19592
19217
19904
19694
20805
19172
18298
20695
19701
19334
20270
19129
19812
19430
19957
18511
18864
19635
18187
19959
20433
18979
19475
17152
19617
19315
17982
17936
19106
19976
16878
19809
20096
20138
20428
20151
20406
19728
20667
20798
19378
20313
18657
18856
18443
17363
18572
18065
17989
18017
19710
18095
19974
19793
19904
20315
19684
19913
19774
20111
19871
18866
20173
19982
19303
19997
19197
19594
20349
19725